Printed Wed Oct 7 14:32:17 PDT 1998
Using most recent data from /scans/prelim/fill_synop.prelim:  CT1940:180 to CT1941:185

Latest Magnetogram:
  sn=6125	 time=1998:10:06_21h:21m:09s   CT1941:201
	trouble=00004200 sky= 5 NOTE: 

Coefficients for 360 degrees 
  Beginning: CT1940:180  1998:09:11_07h:15m:32s. 
  Centered:  CT1941:360  1998:09:24_22h:33m:43s. 
  End time:  CT1941:185  1998:10:08_04h:46m:24s.

Max Harmonic Order:20   Units: microTesla (0.01G)

  l   m      g(uT)      h(uT)

  0   0      29.02       0.00
  1   0      95.00       0.00
  1   1     -11.63     -14.09
  2   0      56.29       0.00
  2   1     -13.87     -26.44
  2   2      15.06      61.08
  3   0     146.43       0.00
  3   1       1.30      -5.63
  3   2     -62.60      43.96
  3   3     -20.54      -3.61
  4   0      52.10       0.00
  4   1      41.69     -23.04
  4   2     -57.34      47.22
  4   3      14.98     -27.05
  4   4     -46.28      64.33
  5   0     209.09       0.00
  5   1     -51.66      24.20
  5   2      63.64     -41.13
  5   3      23.03      15.14
  5   4      27.28     131.84
  5   5      29.92     -47.57
  6   0     -24.14       0.00
  6   1      24.41      12.85
  6   2      29.37     -69.53
  6   3       5.38      17.86
  6   4     -44.38      23.21
  6   5       8.43      59.92
  6   6     -85.43      44.82
  7   0     -56.51       0.00
  7   1     -32.30      10.76
  7   2      -9.29      78.17
  7   3     -35.42     -28.27
  7   4      28.22     -56.41
  7   5      41.35     -30.86
  7   6    -177.31     -39.26
  7   7     -25.20      29.12
  8   0     -13.70       0.00
  8   1       8.46      24.97
  8   2     106.64     -63.07
  8   3     -18.84     -31.61
  8   4      25.29     -55.16
  8   5      43.97      58.65
  8   6     -24.63      24.98
  8   7      -7.55     -89.72
  8   8     -79.73     -41.86
  9   0     -88.08       0.00
  9   1       3.37      -5.46
  9   2    -124.61     101.65
  9   3     -35.13      11.10
  9   4     -58.09      24.81
  9   5      29.38      26.41
  9   6     -13.04      15.31
  9   7      41.94      45.80
  9   8    -106.64      96.98
  9   9      19.44       3.84
 10   0      30.15       0.00
 10   1      40.26     -48.48
 10   2      -1.75     -70.17
 10   3      32.81      -7.04
 10   4      -9.69       6.46
 10   5     -68.67    -123.96
 10   6      64.40     -23.02
 10   7       4.23     -81.50
 10   8     -72.88     -34.81
 10   9     -65.35    -109.80
 10  10     -33.21      23.18
 11   0     -65.51       0.00
 11   1     -38.82      -8.16
 11   2       7.97      27.67
 11   3      62.90      89.95
 11   4       7.15      28.97
 11   5      -3.82     -43.73
 11   6      68.88      72.04
 11   7      22.27     -55.76
 11   8      66.11     -22.71
 11   9     -52.06      48.49
 11  10    -145.39    -122.93
 11  11     -30.19     -39.38
 12   0    -115.58       0.00
 12   1       6.10       0.12
 12   2      51.07     -29.32
 12   3       7.43       4.50
 12   4     -29.03     -31.56
 12   5      -3.89      35.09
 12   6     -67.76      33.63
 12   7      26.24      26.70
 12   8      79.00      55.63
 12   9    -143.57     -45.56
 12  10     -19.74      55.05
 12  11     -59.81      27.02
 12  12     -21.83      -7.23
 13   0    -217.18       0.00
 13   1       6.81      16.50
 13   2      -4.27      63.70
 13   3     -67.27     -56.66
 13   4      -4.56     -27.10
 13   5     -19.39      21.41
 13   6     -34.65     -33.33
 13   7     -39.68     -37.36
 13   8     -26.88       1.15
 13   9     -44.55      -2.10
 13  10     -10.53     -17.27
 13  11     -85.61     -39.12
 13  12     -68.18      83.85
 13  13      96.51      48.61
 14   0     -41.60       0.00
 14   1      -7.42      40.97
 14   2      45.75     -77.39
 14   3     -15.64     -45.89
 14   4      27.71     -15.21
 14   5      18.63      54.56
 14   6      44.72     -22.76
 14   7     -26.03      21.96
 14   8     -11.10      51.65
 14   9      60.09      43.76
 14  10      31.73      13.31
 14  11    -125.29     -26.98
 14  12     -71.75      45.52
 14  13      38.79      39.08
 14  14     -18.52     -26.10
 15   0    -217.21       0.00
 15   1      -4.55       3.01
 15   2     -98.20      73.54
 15   3       6.40      35.44
 15   4     -45.33      51.09
 15   5      29.75      -1.37
 15   6      14.16     -58.15
 15   7      19.12      61.52
 15   8     -58.06      41.88
 15   9     101.28     -31.49
 15  10      41.78      46.04
 15  11     -27.88       6.72
 15  12      14.79     102.60
 15  13      76.82       8.38
 15  14     -22.52      -1.81
 15  15      -1.96      59.13
 16   0     -51.69       0.00
 16   1      -4.30     -35.21
 16   2      34.38     -49.95
 16   3      33.74      15.29
 16   4     -10.60     -12.60
 16   5     -32.16     -98.62
 16   6      -1.99       1.40
 16   7     -44.94     -21.47
 16   8      -3.69     -15.75
 16   9      45.01      17.40
 16  10     -23.46     -13.42
 16  11      12.88     -35.64
 16  12      -6.47      81.63
 16  13      -8.52      42.98
 16  14       0.57      -8.20
 16  15       6.59      64.37
 16  16      19.35     -48.76
 17   0    -237.65       0.00
 17   1      16.21     -19.46
 17   2       9.53      39.69
 17   3      17.47      58.75
 17   4       0.58     -12.22
 17   5      11.30     -18.83
 17   6      10.15      31.90
 17   7       0.23       8.90
 17   8      63.00     -33.86
 17   9     -32.49      16.42
 17  10     -30.46      11.46
 17  11      51.03       1.97
 17  12      35.25      -3.45
 17  13     -99.95     -86.67
 17  14     -64.89      88.33
 17  15      30.46     106.50
 17  16     -31.06      31.95
 17  17      -6.12      65.68
 18   0    -101.61       0.00
 18   1     -23.55      10.26
 18   2      29.45     -19.92
 18   3       5.70     -25.10
 18   4      -7.37     -29.54
 18   5      20.91      40.56
 18   6     -29.61      22.49
 18   7       8.79      24.96
 18   8      18.56     -32.30
 18   9    -105.38     -21.17
 18  10      -0.12       4.73
 18  11      55.03       8.43
 18  12      60.53      -9.12
 18  13     -22.16     -36.28
 18  14      67.91      55.56
 18  15      52.59      -3.71
 18  16       2.09     -87.98
 18  17      59.85     -15.63
 18  18     -37.39     -41.16
 19   0    -147.78       0.00
 19   1      46.32       4.41
 19   2       0.44       4.59
 19   3     -42.39     -20.23
 19   4     -33.52      33.15
 19   5       8.06      27.41
 19   6       2.90      -6.75
 19   7      -0.39     -22.61
 19   8     -40.46      21.85
 19   9     -40.77      14.35
 19  10      27.34     -26.11
 19  11       9.36       3.71
 19  12     -10.47     -32.83
 19  13      12.91      21.22
 19  14       7.89      65.57
 19  15      52.38      -6.04
 19  16      57.31      24.50
 19  17      11.90      87.84
 19  18     -26.25    -142.20
 19  19     -35.60      -2.34
 20   0     -16.29       0.00
 20   1     -38.98      16.67
 20   2     -13.92      -2.70
 20   3      -2.02     -22.63
 20   4       9.39     -19.21
 20   5      -5.19      -4.69
 20   6      19.87      -5.90
 20   7     -28.06      -9.16
 20   8      -5.27      24.92
 20   9      10.56       7.13
 20  10      10.47      13.83
 20  11     -45.47       1.33
 20  12      11.96     -15.91
 20  13       7.35     -47.18
 20  14      20.51      20.33
 20  15      25.06     -44.27
 20  16       4.03      10.99
 20  17      63.13     -18.61
 20  18     -66.20     -64.60
 20  19     -70.66      86.54
 20  20       9.67     -48.29
